Sample	2mm tape 
date	07/01/2025
	
Temperature (K)	77.00
Angle (deg.)	0.000000
field / T	0.100000
	
		
Approx. trace time (s)	120.0	
		
Current / A	V1  -sample/ uV	time/s
-0.018592	0.555633	0.000000
-0.019359	0.542966	0.092000
-0.018610	0.528432	0.138000
-0.018323	0.514428	0.184000
-0.018744	0.500314	0.230000
-0.018506	0.477948	0.277000
-0.019029	0.450283	0.322000
-0.019231	0.429053	0.369000
-0.018537	0.358430	0.547000
-0.018543	0.344512	0.593000
-0.018543	0.330924	0.638000
-0.018885	0.315847	0.685000
-0.018197	0.299495	0.731000
0.008061	0.288345	0.776000
0.031635	0.276831	0.821000
0.057655	0.265741	0.868000
0.081025	0.259972	0.914000
0.107652	0.253471	0.960000
0.131745	0.253096	1.006000
0.216975	0.249844	1.051000
0.241996	0.244568	1.208000
0.265515	0.239629	1.253000
0.290195	0.233106	1.299000
0.316216	0.225910	1.346000
0.341995	0.219454	1.392000
0.366972	0.211271	1.438000
0.454064	0.207282	1.483000
0.479101	0.218488	1.646000
0.504195	0.226451	1.692000
0.528358	0.235029	1.738000
0.552654	0.246375	1.783000
0.577571	0.257155	1.829000
0.602553	0.267835	1.875000
0.627753	0.275677	1.922000
0.652782	0.286961	1.968000
0.678377	0.293604	2.014000
0.703581	0.305028	2.060000
0.728666	0.315898	2.105000
0.927753	0.462430	2.153000
0.951793	0.470749	2.520000
0.976821	0.478277	2.566000
1.060236	0.478862	2.611000
1.085867	0.473847	2.766000
1.111088	0.468492	2.813000
1.136050	0.460041	2.859000
1.160948	0.454119	2.905000
1.185543	0.451860	2.951000
1.209931	0.453969	2.996000
1.234962	0.456618	3.043000
1.259802	0.464175	3.088000
1.285267	0.475443	3.134000
1.310126	0.487966	3.181000
1.399627	0.533057	3.228000
1.424052	0.541640	3.392000
1.449702	0.548081	3.437000
1.474577	0.554427	3.484000
1.499619	0.558892	3.530000
1.523941	0.564843	3.576000
1.548537	0.565193	3.622000
1.761145	0.565183	3.668000
1.786020	0.524418	4.059000
1.811261	0.517977	4.105000
1.835327	0.510830	4.151000
1.860224	0.505825	4.197000
1.885262	0.500285	4.244000
1.910195	0.494634	4.290000
1.995389	0.465239	4.336000
2.020740	0.449157	4.492000
2.045713	0.435428	4.538000
2.070289	0.420961	4.584000
2.095381	0.405445	4.631000
2.120090	0.391641	4.677000
2.145026	0.378263	4.723000
2.240925	0.364060	4.769000
2.265834	0.306640	4.946000
2.290818	0.294395	4.992000
2.316366	0.283916	5.038000
2.341269	0.276479	5.083000
2.366055	0.271771	5.130000
2.391178	0.267683	5.176000
2.415134	0.265566	5.222000
2.440165	0.262362	5.269000
2.465394	0.262292	5.315000
2.490751	0.258638	5.361000
2.515867	0.256713	5.407000
2.600382	0.243602	5.453000
2.625146	0.229768	5.609000
2.649623	0.220820	5.655000
2.674485	0.210329	5.701000
2.699537	0.203047	5.746000
2.724839	0.189288	5.793000
2.749927	0.181346	5.839000
2.837058	0.172367	5.885000
2.862505	0.136496	6.047000
2.887101	0.130150	6.093000
2.912417	0.124794	6.138000
2.936729	0.119194	6.184000
2.961415	0.112903	6.231000
2.986299	0.111887	6.277000
3.011537	0.113749	6.323000
3.037450	0.118389	6.370000
3.061906	0.123288	6.416000
3.087297	0.133749	6.462000
3.112461	0.143493	6.508000
3.196311	0.180630	6.553000
3.220943	0.185045	6.710000
3.245771	0.189288	6.756000
3.271297	0.193923	6.802000
3.296190	0.196576	6.849000
3.321596	0.197337	6.895000
3.346630	0.191701	6.941000
3.433047	0.186501	6.986000
3.458196	0.167602	7.146000
3.481684	0.164255	7.192000
3.506066	0.162197	7.238000
3.531038	0.158043	7.282000
3.556552	0.152012	7.329000
3.581889	0.146656	7.375000
3.606726	0.139714	7.421000
3.631915	0.134515	7.466000
3.656072	0.126907	7.512000
3.680873	0.119980	7.558000
3.705638	0.111426	7.605000
3.904517	-0.025298	7.651000
3.929462	-0.049750	8.019000
3.954932	-0.071362	8.065000
4.039273	-0.089087	8.111000
4.063207	-0.164930	8.265000
4.088009	-0.189064	8.311000
4.112468	-0.207227	8.357000
4.138135	-0.224227	8.403000
4.163258	-0.294970	8.450000
4.188361	-0.261188	8.495000
4.213317	-0.267734	8.541000
4.238471	-0.269080	8.587000
4.262987	-0.270487	8.633000
4.287032	-0.264496	8.679000
4.378528	-0.218227	8.725000
4.403701	-0.213097	8.893000
4.428809	-0.202181	8.938000
4.453177	-0.193303	8.985000
4.477844	-0.186742	9.031000
4.502670	-0.177943	9.077000
4.528137	-0.174190	9.123000
4.739360	-0.168618	9.169000
4.763883	-0.142930	9.559000
4.788850	-0.140900	9.605000
4.814072	-0.134968	9.651000
4.838989	-0.129327	9.697000
4.864020	-0.123094	9.743000
4.889265	-0.114130	9.789000
4.974223	-0.081683	9.836000
4.999093	-0.081463	9.992000
5.023708	-0.069579	10.038000
5.048604	-0.061209	10.085000
5.074123	-0.052088	10.131000
5.099122	-0.045371	10.177000
5.124433	-0.035523	10.224000
5.219505	-0.026791	10.270000
5.245188	-0.010801	10.446000
5.270508	-0.013130	10.492000
5.295147	-0.016977	10.538000
5.319919	-0.019805	10.585000
5.344178	-0.022635	10.630000
5.369295	-0.028980	10.677000
5.394690	-0.030435	10.723000
5.419456	-0.031489	10.769000
5.444837	-0.033288	10.815000
5.469698	-0.035966	10.861000
5.495618	-0.034533	10.907000
5.578460	-0.037852	10.954000
5.603264	-0.046317	11.109000
5.628567	-0.058080	11.154000
5.653274	-0.073057	11.201000
5.678532	-0.086669	11.247000
5.704017	-0.100572	11.293000
5.729113	-0.113799	11.339000
5.816297	-0.124669	11.386000
5.841330	-0.146423	11.547000
5.866281	-0.146563	11.593000
5.890448	-0.144134	11.639000
5.915315	-0.143229	11.685000
5.940262	-0.139816	11.731000
5.965602	-0.139517	11.777000
5.990729	-0.137357	11.823000
6.016317	-0.137228	11.870000
6.041085	-0.138752	11.916000
6.066189	-0.139102	11.962000
6.090902	-0.141050	12.008000
6.174986	-0.142485	12.055000
6.200352	-0.141080	12.210000
6.225412	-0.132730	12.257000
6.250503	-0.122846	12.303000
6.275999	-0.114595	12.349000
6.300445	-0.103150	12.395000
6.324777	-0.089578	12.440000
6.411491	-0.078808	12.486000
6.435833	-0.042729	12.647000
6.460801	-0.033264	12.691000
6.485604	-0.022454	12.737000
6.510897	-0.014464	12.783000
6.535621	-0.005274	12.828000
6.560776	-0.002120	12.875000
6.585261	0.001083	12.921000
6.609789	-0.000446	12.967000
6.634681	0.002228	13.013000
6.659945	-0.000262	13.060000
6.685261	-0.002885	13.105000
6.884105	-0.050589	13.152000
6.909787	-0.060519	13.520000
6.934835	-0.065012	13.566000
7.018731	-0.068405	13.612000
7.042799	-0.066381	13.767000
7.067729	-0.063658	13.812000
7.093046	-0.058950	13.859000
7.118403	-0.054513	13.905000
7.143317	-0.049064	13.951000
7.168731	-0.039549	13.998000
7.193667	-0.036457	14.044000
7.218545	-0.033549	14.090000
7.242857	-0.024242	14.136000
7.267825	-0.013683	14.182000
7.357280	0.022213	14.228000
7.381860	0.029260	14.393000
7.406422	0.038089	14.438000
7.431758	0.042646	14.485000
7.456733	0.048205	14.531000
7.481968	0.053815	14.576000
7.507769	0.059947	14.623000
7.718215	0.065727	14.668000
7.743272	0.111707	15.059000
7.768462	0.114450	15.105000
7.793511	0.117183	15.151000
7.818617	0.119194	15.196000
7.844267	0.117003	15.243000
7.868607	0.112953	15.289000
7.952957	0.107413	15.336000
7.977889	0.104125	15.493000
8.002888	0.107162	15.538000
8.028233	0.113233	15.585000
8.053412	0.119980	15.631000
8.078973	0.129559	15.677000
8.103890	0.137441	15.723000
8.199946	0.144204	15.770000
8.224752	0.153078	15.947000
8.249588	0.154344	15.993000
8.273584	0.153789	16.039000
8.298746	0.147702	16.085000
8.324170	0.143563	16.131000
8.348751	0.138223	16.177000
8.374022	0.133138	16.223000
8.399062	0.127027	16.269000
8.424306	0.119555	16.315000
8.449002	0.112512	16.361000
8.472893	0.107403	16.407000
8.558234	0.077508	16.454000
8.583176	0.065296	16.609000
8.608093	0.055311	16.655000
8.633594	0.043189	16.702000
8.658914	0.034197	16.748000
8.683146	0.019934	16.794000
8.707569	0.013007	16.839000
8.794617	-0.000031	16.886000
8.818992	-0.037631	17.047000
8.844799	-0.049515	17.092000
8.869417	-0.063598	17.138000
8.894979	-0.070408	17.184000
8.919943	-0.080907	17.231000
8.944814	-0.089943	17.276000
8.969702	-0.101887	17.323000
8.994316	-0.109452	17.368000
9.019117	-0.118817	17.415000
9.043914	-0.128282	17.461000
9.069266	-0.137988	17.507000
9.154258	-0.167983	17.554000
9.179080	-0.181977	17.709000
9.204272	-0.188048	17.755000
9.228690	-0.197132	17.802000
9.253423	-0.204099	17.848000
9.278162	-0.212422	17.894000
9.303268	-0.218697	17.940000
9.390446	-0.224387	17.984000
9.415332	-0.252564	18.146000
9.440423	-0.259246	18.192000
9.465249	-0.265392	18.238000
9.490244	-0.271863	18.284000
9.514450	-0.278655	18.330000
9.539150	-0.280402	18.375000
9.564158	-0.282163	18.421000
9.589506	-0.283360	18.468000
9.614843	-0.284656	18.514000
9.640039	-0.282573	18.560000
9.665414	-0.282493	18.607000
9.864317	-0.265581	18.653000
9.889861	-0.270716	19.021000
9.986384	-0.269971	19.066000
10.011870	-0.270236	19.246000
10.036561	-0.269851	19.292000
10.061320	-0.269791	19.338000
10.085881	-0.269985	19.385000
10.110245	-0.273249	19.431000
10.135722	-0.275922	19.477000
10.160382	-0.279721	19.522000
10.185611	-0.280312	19.568000
10.210649	-0.278080	19.614000
10.235428	-0.277078	19.660000
10.260419	-0.276653	19.705000
10.344206	-0.255698	19.752000
10.369611	-0.251498	19.908000
10.394703	-0.240017	19.954000
10.419975	-0.228306	20.000000
10.445045	-0.215149	20.047000
10.469996	-0.203257	20.092000
10.494245	-0.192622	20.138000
10.697080	-0.176827	20.184000
10.722493	-0.044437	20.558000
10.747390	-0.029070	20.605000
10.773092	-0.012400	20.652000
10.797380	0.003883	20.697000
10.821816	0.021238	20.743000
10.846645	0.038143	20.790000
10.932017	0.100921	20.836000
10.957357	0.114189	20.993000
10.982594	0.128273	21.038000
11.007880	0.143503	21.085000
11.032981	0.157742	21.132000
11.057749	0.171796	21.177000
11.081461	0.185539	21.224000
11.177711	0.197116	21.269000
11.202172	0.245703	21.446000
11.227629	0.257899	21.493000
11.252756	0.270308	21.539000
11.277405	0.283927	21.584000
11.303104	0.297750	21.631000
11.328072	0.312193	21.677000
11.352941	0.329359	21.724000
11.377503	0.344421	21.770000
11.402106	0.360299	21.816000
11.427462	0.376660	21.861000
11.451911	0.393232	21.907000
11.537154	0.449342	21.953000
11.561933	0.463806	22.108000
11.586832	0.479063	22.154000
11.611346	0.493127	22.201000
11.635857	0.510859	22.247000
11.661306	0.529478	22.294000
11.686517	0.543862	22.340000
11.773596	0.563376	22.386000
11.798205	0.625777	22.546000
11.824000	0.645932	22.593000
11.848914	0.663545	22.639000
11.873878	0.682096	22.685000
11.898556	0.698558	22.731000
11.923257	0.719218	22.777000
11.948278	0.730712	22.823000
11.973345	0.745785	22.869000
11.998376	0.764405	22.916000
12.023261	0.777999	22.962000
12.048607	0.793791	23.007000
12.132515	0.834969	23.054000
12.157701	0.839478	23.209000
12.182197	0.843775	23.256000
12.206768	0.850257	23.302000
12.231956	0.853050	23.348000
12.257452	0.851471	23.393000
12.282099	0.853160	23.439000
12.369595	0.849142	23.485000
12.394666	0.836204	23.646000
12.419081	0.831476	23.692000
12.443101	0.823155	23.737000
12.467892	0.813331	23.784000
12.492914	0.805410	23.830000
12.518266	0.797713	23.875000
12.543383	0.789057	23.921000
12.568279	0.781698	23.968000
12.593710	0.769813	24.014000
12.618752	0.760948	24.060000
12.643811	0.749889	24.107000
12.843628	0.702713	24.153000
12.868158	0.695995	24.521000
12.965376	0.694001	24.568000
12.990152	0.686529	24.747000
13.014642	0.684520	24.793000
13.039173	0.680277	24.838000
13.064683	0.681611	24.885000
13.089462	0.677159	24.930000
13.114479	0.674877	24.976000
13.139934	0.671893	25.022000
13.164671	0.669291	25.068000
13.189926	0.671984	25.115000
13.213701	0.671463	25.161000
13.239206	0.671503	25.207000
13.323711	0.673996	25.253000
13.349235	0.670367	25.409000
13.373991	0.672144	25.455000
13.399172	0.672264	25.501000
13.423896	0.675101	25.547000
13.447902	0.677724	25.593000
13.473052	0.678335	25.638000
13.676543	0.682675	25.685000
13.701014	0.691669	26.059000
13.725366	0.689643	26.105000
13.750152	0.685675	26.150000
13.775352	0.682766	26.197000
13.800234	0.680177	26.243000
13.825349	0.676023	26.288000
13.911183	0.657494	26.335000
13.936260	0.647319	26.493000
13.961029	0.643370	26.539000
13.985363	0.642764	26.585000
14.010446	0.642805	26.631000
14.035182	0.643550	26.677000
14.060411	0.645157	26.723000
14.155901	0.645327	26.769000
14.181776	0.647259	26.946000
14.207061	0.646724	26.993000
14.232150	0.647840	27.038000
14.257102	0.648505	27.085000
14.282334	0.651472	27.132000
14.307005	0.654266	27.178000
14.331218	0.658560	27.224000
14.356601	0.666097	27.270000
14.381580	0.672408	27.317000
14.406820	0.681896	27.362000
14.431722	0.689623	27.408000
14.516380	0.703816	27.454000
14.541051	0.700173	27.611000
14.565232	0.702902	27.657000
14.590385	0.706614	27.702000
14.615725	0.711867	27.748000
14.640627	0.721192	27.794000
14.665837	0.730054	27.840000
14.752459	0.743181	27.886000
14.777586	0.787824	28.047000
14.802426	0.797923	28.092000
14.826347	0.806605	28.138000
14.851288	0.810912	28.184000
14.876773	0.816259	28.230000
14.901979	0.814014	28.277000
14.926852	0.812756	28.323000
14.952215	0.815469	28.369000
14.977178	0.812507	28.415000
15.003205	0.810317	28.461000
15.027533	0.802811	28.507000
15.111462	0.782922	28.553000
15.136668	0.768529	28.709000
15.162040	0.756494	28.755000
15.187293	0.744325	28.802000
15.212055	0.729643	28.847000
15.237272	0.715320	28.893000
15.261485	0.694211	28.939000
15.349728	0.674537	28.985000
15.373331	0.601916	29.146000
15.397886	0.586305	29.192000
15.422884	0.571635	29.237000
15.447656	0.555999	29.283000
15.472714	0.544038	29.329000
15.498255	0.531796	29.375000
15.523437	0.522587	29.422000
15.548421	0.512072	29.468000
15.572819	0.512112	29.514000
15.597237	0.511561	29.560000
15.622284	0.515690	29.607000
15.821898	0.660643	29.652000
15.846753	0.677694	30.020000
15.872301	0.698868	30.066000
15.956631	0.718178	30.113000
15.980622	0.771507	30.267000
16.005330	0.780133	30.313000
16.030190	0.791952	30.360000
16.055229	0.799807	30.406000
16.080331	0.811173	30.451000
16.105380	0.817323	30.497000
16.131064	0.833196	30.544000
16.155657	0.857418	30.590000
16.180665	0.879168	30.636000
16.205254	0.907325	30.682000
16.295156	1.030011	30.728000
16.319586	1.061577	30.893000
16.343846	1.094619	30.938000
16.368669	1.120477	30.984000
16.393698	1.142430	31.030000
16.418585	1.159781	31.076000
16.443339	1.172171	31.122000
16.654940	1.189292	31.168000
16.679982	1.276687	31.559000
16.705389	1.279477	31.605000
16.729901	1.283654	31.650000
16.755716	1.280411	31.697000
16.780439	1.273853	31.743000
16.805411	1.268182	31.789000
16.890234	1.271709	31.835000
16.914744	1.270715	31.993000
16.940150	1.275493	32.039000
16.964658	1.280080	32.085000
16.990075	1.282669	32.131000
17.015142	1.289826	32.177000
17.040509	1.296247	32.223000
17.136575	1.302925	32.269000
17.161391	1.342658	32.446000
17.186347	1.359514	32.492000
17.210600	1.372423	32.538000
17.235502	1.383854	32.585000
17.260373	1.395030	32.631000
17.285640	1.410169	32.677000
17.310682	1.420565	32.723000
17.336116	1.435225	32.769000
17.360986	1.453132	32.815000
17.386420	1.472090	32.862000
17.411207	1.488756	32.907000
17.494344	1.545769	32.954000
17.519607	1.548028	33.109000
17.544407	1.551954	33.155000
17.569726	1.552555	33.201000
17.594611	1.548296	33.247000
17.619669	1.537145	33.293000
17.644527	1.523541	33.338000
17.732164	1.509412	33.385000
17.756642	1.448827	33.547000
17.781475	1.433027	33.592000
17.805998	1.415044	33.638000
17.831254	1.400109	33.684000
17.856179	1.384104	33.730000
17.881333	1.368282	33.776000
17.905714	1.353624	33.822000
17.930585	1.336447	33.868000
17.954539	1.322509	33.913000
17.979808	1.308101	33.959000
18.004798	1.293359	34.004000
18.089600	1.248581	34.050000
18.114660	1.230162	34.207000
18.140252	1.214223	34.253000
18.164689	1.198298	34.300000
18.189068	1.184634	34.346000
18.213673	1.172730	34.392000
18.238842	1.162120	34.437000
18.326998	1.155093	34.482000
18.351775	1.139846	34.646000
18.376854	1.144604	34.692000
18.401879	1.148463	34.738000
18.427407	1.158268	34.784000
18.451967	1.171735	34.830000
18.476745	1.183580	34.876000
18.500610	1.196020	34.922000
18.526322	1.208417	34.968000
18.551267	1.221851	35.014000
18.576466	1.235443	35.060000
18.601299	1.248321	35.106000
18.800793	1.317346	35.151000
18.826046	1.318755	35.520000
18.850919	1.326241	35.566000
18.934412	1.330606	35.613000
18.959183	1.358644	35.768000
18.984938	1.365585	35.814000
19.009965	1.375620	35.860000
19.035119	1.384709	35.906000
19.060126	1.395204	35.953000
19.085224	1.408017	35.998000
19.109952	1.420845	36.045000
19.134769	1.434894	36.090000
19.159650	1.444939	36.137000
19.184535	1.458227	36.184000
19.273008	1.472210	36.229000
19.297324	1.474107	36.392000
19.322540	1.471759	36.438000
19.347905	1.470603	36.484000
19.372947	1.477275	36.530000
19.398120	1.480052	36.575000
19.422939	1.480293	36.622000
19.634056	1.482755	36.668000
19.658789	1.497119	37.059000
19.684015	1.499782	37.104000
19.709029	1.504347	37.151000
19.734208	1.502449	37.197000
19.758800	1.498536	37.243000
19.783311	1.495863	37.289000
19.868576	1.466709	37.335000
19.893814	1.453021	37.493000
19.919168	1.437851	37.538000
19.944193	1.423066	37.585000
19.968893	1.405244	37.630000
19.993841	1.387291	37.677000
20.017623	1.372532	37.722000
20.114811	1.353564	37.769000
20.139239	1.284717	37.947000
20.164473	1.267021	37.993000
20.189368	1.252145	38.039000
20.214399	1.242026	38.085000
20.239904	1.233044	38.131000
20.264962	1.227006	38.178000
20.290196	1.221249	38.223000
20.314453	1.217033	38.269000
20.339432	1.209366	38.315000
20.363867	1.209077	38.362000
20.389353	1.210995	38.407000
20.473836	1.216168	38.454000
20.499046	1.212405	38.609000
20.524537	1.219870	38.655000
20.549488	1.224467	38.702000
20.574098	1.226267	38.748000
20.598760	1.235633	38.795000
20.623550	1.239596	38.841000
20.710164	1.248601	38.887000
20.734949	1.275713	39.046000
20.760402	1.282509	39.092000
20.785460	1.286906	39.138000
20.810210	1.287777	39.184000
20.835696	1.286921	39.231000
20.860570	1.280270	39.277000
20.884048	1.271463	39.323000
20.909409	1.256156	39.368000
20.934306	1.242439	39.415000
20.959410	1.231035	39.461000
20.985099	1.214774	39.507000
21.070128	1.163649	39.553000
21.094711	1.144204	39.709000
21.119254	1.130351	39.755000
21.143528	1.114473	39.801000
21.168553	1.096991	39.847000
21.193517	1.080726	39.893000
21.218882	1.059535	39.938000
21.305872	1.043314	39.984000
21.331368	0.986368	40.146000
21.356018	0.973059	40.192000
21.381076	0.959576	40.238000
21.405313	0.944276	40.284000
21.429954	0.927975	40.329000
21.455163	0.912755	40.376000
21.479891	0.899877	40.422000
21.505440	0.885010	40.468000
21.530600	0.875264	40.514000
21.555536	0.864109	40.560000
21.580312	0.852620	40.606000
21.779154	0.771017	40.651000
21.803973	0.758772	41.020000
21.828700	0.749768	41.066000
21.912967	0.745120	41.112000
21.937976	0.735154	41.267000
21.963220	0.733396	41.313000
21.988324	0.729372	41.359000
22.012934	0.728468	41.405000
22.037072	0.730216	41.451000
22.062156	0.733056	41.497000
22.087447	0.733859	41.543000
22.112216	0.738074	41.588000
22.137470	0.742371	41.635000
22.162514	0.752405	41.681000
22.251657	0.819601	41.727000
22.277372	0.843954	41.893000
22.302633	0.876896	41.940000
22.327234	0.908581	41.985000
22.352735	0.942468	42.032000
22.377549	0.976457	42.078000
22.402176	1.010561	42.124000
22.613469	1.047772	42.170000
22.638834	1.335069	42.559000
22.663010	1.368622	42.604000
22.687941	1.397746	42.650000
22.712152	1.427340	42.697000
22.737346	1.456649	42.742000
22.762959	1.486949	42.789000
22.848533	1.611733	42.836000
22.873873	1.640849	42.992000
22.898554	1.671762	43.038000
22.922896	1.698044	43.085000
22.947715	1.721252	43.131000
22.972454	1.737974	43.177000
22.997888	1.752961	43.224000
23.093368	1.761343	43.269000
23.118611	1.762579	43.446000
23.143661	1.755152	43.492000
23.168716	1.748183	43.538000
23.193762	1.740473	43.584000
23.218724	1.731771	43.630000
23.243434	1.726060	43.676000
23.267789	1.717065	43.722000
23.292821	1.707650	43.769000
23.318131	1.697694	43.815000
23.343559	1.688889	43.861000
23.368655	1.677749	43.908000
23.453223	1.651519	43.954000
23.477622	1.637010	44.109000
23.501988	1.626040	44.155000
23.526873	1.620599	44.201000
23.551902	1.611133	44.247000
23.576854	1.607510	44.293000
23.601881	1.607860	44.338000
23.689411	1.614202	44.385000
23.714614	1.687394	44.546000
23.740189	1.711671	44.592000
23.764563	1.741956	44.638000
23.789488	1.767644	44.684000
23.813773	1.793530	44.730000
23.838898	1.811402	44.777000
23.863769	1.823679	44.823000
23.888958	1.835831	44.869000
23.914699	1.839289	44.914000
23.939400	1.843188	44.961000
23.964309	1.841252	45.007000
24.048055	1.837058	45.053000
24.072927	1.835116	45.209000
24.098292	1.835036	45.255000
24.123497	1.834595	45.302000
24.148509	1.834565	45.348000
24.173657	1.834265	45.394000
24.198282	1.836858	45.439000
24.285651	1.838795	45.485000
24.310122	1.834856	45.646000
24.334247	1.833549	45.692000
24.358891	1.834585	45.738000
24.384195	1.833940	45.783000
24.409456	1.837258	45.830000
24.434554	1.833379	45.876000
24.459667	1.831547	45.921000
24.484696	1.830926	45.968000
24.509412	1.829560	46.014000
24.533663	1.827979	46.060000
24.558600	1.827499	46.106000
24.757703	1.820601	46.152000
24.782448	1.813143	46.519000
24.807813	1.809080	46.565000
24.892260	1.803695	46.611000
24.917352	1.779346	46.767000
24.941334	1.769997	46.813000
24.966224	1.763475	46.859000
24.990873	1.755973	46.904000
25.016196	1.748673	46.951000
25.041369	1.746394	46.996000
25.066520	1.745834	47.043000
25.091526	1.749182	47.088000
25.116482	1.753551	47.134000
25.140921	1.759151	47.181000
25.231304	1.787209	47.227000
25.256484	1.792784	47.393000
25.281688	1.802223	47.439000
25.305658	1.812268	47.485000
25.330420	1.820171	47.531000
25.355464	1.828324	47.577000
25.380418	1.842617	47.623000
25.592017	1.855250	47.669000
25.616619	1.969112	48.059000
25.641423	1.976693	48.104000
25.666639	1.977663	48.151000
25.691648	1.982271	48.198000
25.717132	1.984590	48.244000
25.742171	1.983950	48.290000
25.827154	1.983635	48.336000
25.852161	1.972496	48.493000
25.876199	1.963968	48.539000
25.901287	1.953722	48.585000
25.926568	1.946014	48.631000
25.951330	1.936050	48.677000
25.976737	1.931715	48.723000
26.072419	1.927526	48.769000
26.097913	1.884129	48.947000
26.122825	1.868103	48.993000
26.148585	1.852327	49.038000
26.172563	1.838614	49.086000
26.197314	1.821082	49.131000
26.221807	1.809220	49.177000
26.247235	1.793459	49.224000
26.272214	1.776098	49.269000
26.297237	1.758751	49.316000
26.322625	1.743545	49.361000
26.347539	1.730053	49.407000
26.431279	1.684825	49.453000
26.455914	1.671642	49.609000
26.480985	1.656819	49.655000
26.506037	1.645586	49.701000
26.531227	1.632133	49.747000
26.556930	1.622243	49.794000
26.581928	1.610049	49.840000
26.668661	1.600644	49.886000
26.693815	1.579744	50.047000
26.717520	1.577166	50.092000
26.741942	1.574136	50.138000
26.767107	1.574757	50.184000
26.792626	1.575982	50.230000
26.817745	1.581583	50.277000
26.843029	1.583562	50.322000
26.868202	1.587826	50.369000
26.893129	1.592003	50.415000
26.917782	1.595886	50.461000
26.942496	1.602358	50.507000
27.062636	1.599093	50.554000
27.088422	1.619258	50.776000
27.113866	1.638229	50.823000
27.138606	1.655559	50.869000
27.163635	1.674550	50.915000
27.188647	1.695064	50.961000
27.271034	1.713744	51.006000
27.295940	1.797618	51.160000
27.321008	1.825791	51.206000
27.346319	1.851891	51.252000
27.371584	1.873157	51.299000
27.397156	1.893051	51.345000
27.422151	1.910008	51.391000
27.446726	1.924643	51.438000
27.470895	1.937411	51.484000
27.496187	1.949122	51.529000
27.520430	1.958260	51.575000
27.728692	2.012348	51.621000
27.754055	2.014907	52.005000
27.778874	2.029643	52.051000
27.899320	2.042682	52.097000
27.923855	2.120052	52.319000
27.948959	2.129843	52.365000
27.973686	2.145140	52.412000
27.998410	2.156744	52.458000
28.024005	2.163405	52.504000
28.048990	2.170481	52.550000
28.074436	2.172041	52.596000
28.099146	2.175774	52.641000
28.124263	2.176869	52.688000
28.210489	2.162736	52.734000
28.234960	2.153061	52.893000
28.259740	2.146455	52.940000
28.284939	2.138464	52.986000
28.310349	2.128638	53.033000
28.334872	2.119083	53.079000
28.359928	2.106655	53.125000
28.570209	2.097944	53.171000
28.594859	2.006536	53.558000
28.619808	1.995565	53.604000
28.644554	1.985366	53.649000
28.669917	1.970829	53.695000
28.693329	1.956852	53.741000
28.718127	1.942133	53.787000
28.804781	1.882119	53.832000
28.830315	1.858070	53.993000
28.855194	1.838730	54.039000
28.880626	1.819186	54.086000
28.905803	1.795984	54.131000
28.930838	1.771415	54.178000
28.956070	1.744981	54.224000
29.051103	1.720239	54.270000
29.076293	1.633229	54.447000
29.100095	1.610585	54.493000
29.124997	1.593660	54.538000
29.150554	1.574489	54.585000
29.175344	1.553798	54.631000
29.201067	1.533341	54.677000
29.225827	1.515709	54.723000
29.251438	1.493652	54.769000
29.275894	1.476285	54.815000
29.300669	1.455615	54.861000
29.325126	1.438559	54.907000
29.409659	1.386598	54.953000
29.435159	1.366333	55.109000
29.459803	1.352865	55.155000
29.485276	1.337674	55.201000
29.509356	1.323565	55.247000
29.534216	1.306682	55.293000
29.558728	1.292116	55.339000
29.646056	1.277118	55.385000
29.670981	1.234980	55.547000
29.696087	1.230302	55.593000
29.721427	1.230242	55.639000
29.746292	1.227014	55.684000
29.771634	1.227194	55.730000
29.796957	1.232322	55.777000
29.820999	1.238244	55.823000
29.845323	1.247429	55.868000
29.870617	1.259716	55.914000
29.895905	1.273655	55.961000
29.920615	1.292720	56.006000
30.005235	1.390521	56.053000
30.030429	1.425795	56.209000
30.054800	1.460710	56.255000
30.079510	1.497466	56.301000
30.103850	1.530333	56.346000
30.128877	1.555118	56.392000
30.153842	1.579970	56.438000
30.241666	1.598811	56.484000
30.266931	1.654462	56.646000
30.291384	1.665762	56.691000
30.317010	1.676826	56.738000
30.342192	1.690095	56.784000
30.366881	1.702363	56.830000
30.391205	1.713403	56.876000
30.416294	1.726885	56.923000
30.441129	1.739639	56.969000
30.466542	1.749890	57.015000
30.492099	1.763417	57.061000
30.516615	1.771305	57.107000
30.716358	1.836264	57.153000
30.741644	1.838515	57.522000
30.838265	1.839862	57.568000
30.862791	1.841383	57.747000
30.888536	1.840197	57.793000
30.912703	1.834136	57.839000
30.937393	1.827680	57.885000
30.962247	1.818491	57.930000
30.987224	1.804482	57.977000
31.012653	1.792255	58.022000
31.037624	1.777276	58.069000
31.062966	1.757366	58.116000
31.088154	1.741699	58.161000
31.112993	1.721814	58.208000
31.196241	1.675782	58.253000
31.221529	1.660864	58.410000
31.246985	1.654673	58.455000
31.271612	1.647807	58.502000
31.296814	1.641214	58.548000
31.321968	1.641019	58.594000
31.346670	1.637113	58.639000
31.548843	1.638835	58.685000
31.573895	1.627267	59.059000
31.599252	1.632175	59.105000
31.624031	1.635287	59.151000
31.648415	1.648270	59.198000
31.673059	1.659631	59.244000
31.697919	1.671395	59.289000
31.783922	1.689264	59.336000
31.808532	1.678201	59.493000
31.834187	1.675271	59.539000
31.859047	1.670674	59.585000
31.884139	1.664902	59.631000
31.908613	1.662353	59.677000
31.932991	1.657645	59.723000
32.028738	1.653148	59.770000
32.053949	1.628692	59.947000
32.079383	1.620100	59.993000
32.103830	1.607931	60.038000
32.129316	1.599660	60.084000
32.154387	1.586651	60.130000
32.179205	1.578122	60.176000
32.203460	1.564128	60.222000
32.228018	1.551249	60.268000
32.253216	1.536956	60.315000
32.278114	1.525188	60.360000
32.303612	1.513196	60.406000
32.388233	1.488288	60.452000
32.413865	1.483007	60.609000
32.438675	1.479709	60.655000
32.462982	1.478908	60.701000
32.488022	1.480805	60.748000
32.512801	1.482487	60.794000
32.538199	1.489914	60.840000
32.625061	1.494418	60.887000
32.650235	1.512481	61.047000
32.675414	1.516866	61.093000
32.700378	1.517611	61.138000
32.725307	1.521119	61.185000
32.750224	1.518997	61.230000
32.775199	1.518607	61.277000
32.799752	1.515399	61.324000
32.824988	1.512726	61.370000
32.849913	1.507827	61.416000
32.875084	1.502892	61.461000
32.900255	1.498178	61.508000
32.984266	1.469279	61.554000
33.008788	1.456762	61.710000
33.033359	1.444470	61.755000
33.059041	1.436051	61.802000
33.083963	1.427272	61.847000
33.108688	1.419785	61.893000
33.133571	1.416988	61.938000
33.221062	1.413814	61.984000
33.246291	1.415261	62.146000
33.270582	1.419289	62.192000
33.295615	1.424175	62.238000
33.319879	1.432167	62.284000
33.345277	1.440035	62.331000
33.370041	1.453244	62.376000
33.395254	1.465466	62.422000
33.420598	1.479208	62.468000
33.445262	1.496790	62.514000
33.470471	1.514123	62.560000
33.494862	1.526044	62.606000
33.694675	1.568587	62.652000
33.718920	1.566962	63.021000
33.743403	1.564418	63.067000
33.828152	1.566148	63.113000
33.853472	1.567172	63.267000
33.878455	1.573174	63.314000
33.903134	1.576397	63.360000
33.927314	1.589241	63.406000
33.952070	1.598566	63.452000
33.977015	1.611819	63.498000
34.002854	1.621675	63.544000
34.027633	1.629596	63.590000
34.052670	1.636612	63.636000
34.077964	1.642063	63.682000
34.166692	1.658455	63.728000
34.191959	1.663717	63.893000
34.217207	1.662914	63.939000
34.242378	1.663918	63.986000
34.267322	1.662963	64.032000
34.291829	1.661958	64.077000
34.316262	1.662443	64.124000
34.527957	1.661958	64.170000
34.552190	1.627906	64.558000
34.577008	1.627147	64.605000
34.601653	1.626453	64.650000
34.626509	1.625757	64.697000
34.652098	1.628652	64.742000
34.677231	1.634754	64.788000
34.763032	1.654853	64.836000
34.787784	1.655787	64.993000
34.812156	1.659501	65.039000
34.836674	1.659451	65.085000
34.861749	1.658216	65.131000
34.886866	1.656076	65.176000
34.911949	1.656811	65.223000
35.008058	1.656962	65.269000
35.032937	1.641394	65.446000
35.058173	1.634932	65.492000
35.083171	1.628281	65.538000
35.107781	1.623218	65.584000
35.131750	1.616357	65.630000
35.156594	1.612010	65.676000
35.182034	1.604257	65.722000
35.206813	1.600276	65.768000
35.231880	1.595022	65.813000
35.256863	1.589140	65.859000
35.281927	1.582034	65.905000
35.365292	1.549606	65.951000
35.390425	1.535391	66.107000
35.415872	1.526739	66.153000
35.440690	1.523361	66.199000
35.465999	1.518497	66.245000
35.490679	1.514612	66.291000
35.515269	1.505424	66.337000
35.604232	1.496159	66.383000
35.629353	1.458763	66.547000
35.654570	1.454368	66.593000
35.678189	1.460270	66.638000
35.702884	1.465305	66.684000
35.727794	1.469548	66.730000
35.753080	1.472191	66.776000
35.778485	1.470865	66.822000
35.803122	1.467407	66.868000
35.828324	1.463438	66.914000
35.852654	1.457607	66.960000
35.877410	1.449794	67.006000
35.961248	1.457113	67.051000
35.986665	1.459104	67.207000
36.012182	1.469750	67.253000
36.036884	1.479945	67.299000
36.061828	1.491966	67.345000
36.085705	1.501626	67.390000
36.110438	1.509829	67.436000
36.199681	1.518977	67.482000
36.224110	1.535552	67.646000
36.248317	1.539195	67.692000
36.273742	1.537871	67.738000
36.298901	1.536183	67.784000
36.324022	1.537606	67.830000
36.348859	1.540079	67.876000
36.374072	1.540059	67.922000
36.398840	1.543520	67.968000
36.422878	1.549216	68.013000
36.447081	1.555388	68.059000
36.472797	1.566457	68.105000
36.671910	1.614639	68.151000
36.697346	1.620601	68.520000
36.722836	1.636018	68.566000
36.807246	1.651497	68.612000
36.831799	1.671828	68.768000
36.856036	1.663787	68.814000
36.881031	1.657665	68.859000
36.906167	1.649484	68.906000
36.931204	1.648510	68.951000
36.956317	1.646870	68.997000
36.981530	1.648510	69.043000
37.006728	1.645207	69.089000
37.030727	1.645676	69.135000
37.055434	1.653628	69.181000
37.145464	1.708234	69.227000
37.171446	1.722437	69.393000
37.195434	1.738378	69.440000
37.219610	1.752731	69.485000
37.244558	1.766825	69.530000
37.269429	1.778101	69.576000
37.294923	1.790819	69.622000
37.505365	1.799647	69.668000
37.531043	1.804802	70.059000
37.556149	1.799292	70.104000
37.581489	1.799082	70.151000
37.606195	1.796919	70.197000
37.631474	1.796054	70.243000
37.656019	1.793856	70.288000
37.741647	1.792690	70.334000
37.766829	1.784002	70.493000
37.791232	1.780764	70.539000
37.816445	1.775338	70.585000
37.842146	1.766935	70.632000
37.867371	1.760854	70.678000
37.892131	1.750312	70.724000
37.988251	1.745504	70.770000
38.013053	1.745745	70.946000
38.037498	1.750893	70.992000
38.062116	1.751192	71.038000
38.086937	1.756350	71.085000
38.111724	1.761970	71.131000
38.136726	1.767095	71.177000
38.162669	1.771660	71.222000
38.186922	1.777015	71.269000
38.212063	1.784102	71.314000
38.237526	1.787040	71.360000
38.261490	1.791654	71.407000
38.345881	1.795513	71.452000
38.371083	1.794677	71.609000
38.396266	1.797324	71.655000
38.421037	1.797645	71.701000
38.446596	1.800318	71.747000
38.470922	1.804932	71.792000
38.495494	1.812169	71.839000
38.583446	1.815002	71.885000
38.608172	1.837409	72.047000
38.621587	1.855677	72.093000
38.658176	1.862158	72.139000
38.682778	1.876363	72.186000
38.708299	1.887238	72.231000
38.733746	1.899049	72.278000
38.758425	1.906517	72.324000
38.783585	1.913023	72.370000
38.809048	1.916732	72.415000
38.832782	1.920240	72.462000
38.857765	1.922793	72.509000
38.942955	1.929870	72.555000
38.967392	1.927838	72.711000
38.993159	1.927888	72.757000
39.017911	1.928784	72.803000
39.042272	1.925266	72.848000
39.066924	1.925981	72.894000
39.091496	1.924289	72.940000
39.178445	1.922262	72.985000
39.203785	1.938213	73.146000
39.228726	1.946276	73.192000
39.253812	1.958648	73.238000
39.279464	1.970147	73.285000
39.304596	1.987094	73.331000
39.328907	1.999507	73.377000
39.353943	2.014095	73.423000
39.378703	2.026919	73.470000
39.403805	2.041537	73.516000
39.428415	2.060317	73.562000
39.454547	2.073120	73.609000
39.653279	2.179146	73.654000
39.678654	2.183618	74.023000
39.774812	2.195520	74.069000
39.799845	2.234003	74.246000
39.824762	2.247421	74.292000
39.850029	2.262711	74.338000
39.874543	2.277620	74.384000
39.898335	2.292831	74.430000
39.923860	2.305478	74.476000
39.948819	2.315563	74.522000
39.973691	2.327084	74.568000
39.999058	2.337545	74.614000
40.024482	2.345017	74.661000
40.049177	2.348775	74.706000
40.133687	2.343185	74.753000
40.157836	2.331679	74.908000
40.182608	2.324743	74.954000
40.208217	2.315603	75.001000
40.233545	2.306314	75.047000
40.258382	2.296179	75.093000
40.283664	2.288552	75.139000
40.485578	2.276655	75.186000
40.510465	2.340773	75.558000
40.535755	2.361413	75.605000
40.561725	2.382243	75.652000
40.586258	2.401041	75.697000
40.610480	2.423738	75.744000
40.635893	2.449331	75.790000
40.719812	2.532368	75.837000
40.745840	2.557659	75.993000
40.770592	2.585900	76.038000
40.782517	2.625311	76.085000
40.820796	2.635677	76.131000
40.845836	2.652583	76.177000
40.870054	2.661882	76.223000
40.966532	2.664165	76.269000
40.991376	2.662293	76.447000
41.015544	2.660166	76.493000
41.040785	2.657098	76.539000
41.066716	2.657378	76.586000
41.092010	2.662173	76.632000
41.116486	2.666406	76.678000
41.141757	2.678238	76.724000
41.167254	2.686681	76.771000
41.191853	2.702412	76.817000
41.216036	2.714795	76.862000
41.241223	2.731871	76.908000
41.325975	2.778747	76.954000
41.351204	2.782731	77.111000
41.376552	2.793837	77.157000
41.401077	2.802545	77.203000
41.425295	2.817588	77.249000
41.450839	2.827657	77.295000
41.474662	2.835880	77.341000
41.561715	2.844830	77.387000
41.586252	2.845764	77.546000
41.611857	2.838038	77.593000
41.637278	2.829325	77.639000
41.662288	2.825441	77.685000
41.687367	2.821282	77.731000
41.712457	2.821131	77.777000
41.736860	2.822516	77.823000
41.761354	2.829364	77.870000
41.786825	2.837055	77.916000
41.812242	2.848213	77.962000
41.836422	2.865050	78.007000
41.921931	2.923200	78.054000
41.946003	2.942450	78.210000
41.970456	2.965898	78.255000
41.995281	2.993170	78.301000
42.020271	3.024419	78.347000
42.044951	3.057961	78.392000
42.070064	3.094107	78.438000
42.157659	3.130787	78.483000
42.182481	3.260770	78.647000
42.208274	3.300599	78.693000
42.232857	3.342104	78.739000
42.256868	3.383072	78.785000
42.282227	3.418865	78.831000
42.306926	3.464199	78.877000
42.331724	3.503203	78.922000
42.357103	3.542596	78.968000
42.382297	3.577936	79.014000
42.406826	3.610117	79.061000
42.432162	3.637299	79.106000
42.631729	3.750542	79.153000
42.655640	3.753995	79.520000
42.680453	3.763660	79.566000
42.764633	3.773829	79.612000
42.789466	3.816922	79.768000
42.815413	3.832644	79.814000
42.840492	3.848532	79.860000
42.864875	3.867685	79.906000
42.890423	3.888894	79.952000
42.914806	3.914606	79.999000
42.939413	3.940450	80.045000
42.964680	3.969994	80.090000
42.989847	3.999718	80.137000
43.014503	4.031535	80.183000
43.103301	4.125906	80.230000
43.128514	4.136285	80.393000
43.153504	4.146755	80.439000
43.178941	4.153468	80.486000
43.203862	4.157975	80.531000
43.228138	4.159874	80.577000
43.252798	4.154671	80.623000
43.464619	4.151278	80.669000
43.489471	4.078349	81.059000
43.514423	4.092309	81.105000
43.539302	4.105790	81.151000
43.564335	4.124661	81.198000
43.588615	4.134077	81.244000
43.613682	4.147875	81.290000
43.699606	4.180109	81.335000
43.723890	4.182799	81.493000
43.749960	4.190084	81.538000
43.773959	4.199300	81.585000
43.798742	4.217011	81.631000
43.823851	4.239828	81.678000
43.849103	4.268184	81.724000
43.944071	4.299732	81.770000
43.969365	4.439330	81.946000
43.994885	4.472818	81.993000
44.019803	4.510734	82.038000
44.044486	4.546789	82.085000
44.070206	4.576413	82.131000
44.094785	4.605410	82.176000
44.118831	4.627844	82.223000
44.144505	4.642845	82.269000
44.169046	4.651207	82.315000
44.194555	4.655704	82.362000
44.219204	4.655634	82.408000
44.303929	4.675428	82.454000
44.329423	4.682080	82.610000
44.354167	4.696697	82.655000
44.378366	4.714293	82.702000
44.403149	4.734669	82.748000
44.428240	4.760100	82.794000
44.453937	4.784559	82.839000
44.540192	4.811690	82.885000
44.566050	4.920973	83.047000
44.590207	4.960539	83.092000
44.602789	5.022654	83.138000
44.640230	5.045237	83.184000
44.664448	5.087014	83.230000
44.689274	5.127014	83.276000
44.714391	5.160334	83.321000
44.739773	5.194415	83.368000
44.764337	5.227117	83.414000
44.789873	5.253212	83.460000
44.815355	5.277617	83.506000
44.898168	5.349288	83.552000
44.923627	5.370953	83.708000
44.947972	5.395930	83.754000
44.973377	5.420743	83.799000
44.998740	5.442122	83.846000
45.024134	5.464436	83.891000
45.048022	5.485489	83.937000
45.137803	5.507963	83.982000
45.162113	5.592808	84.146000
45.186428	5.617671	84.192000
45.211395	5.642604	84.238000
45.236009	5.668055	84.284000
45.261088	5.689435	84.330000
45.286359	5.709921	84.376000
45.311941	5.729795	84.422000
45.336478	5.749385	84.468000
45.361269	5.768243	84.514000
45.386586	5.790349	84.560000
45.410243	5.817222	84.606000
45.610416	6.087895	84.652000
45.634950	6.122825	85.021000
45.659679	6.158741	85.066000
45.744846	6.196397	85.113000
45.769468	6.324385	85.268000
45.795253	6.361036	85.314000
45.819583	6.400594	85.360000
45.843667	6.433868	85.406000
45.868865	6.470992	85.452000
45.894443	6.504158	85.498000
45.919706	6.540454	85.545000
45.944854	6.572641	85.591000
45.970305	6.606173	85.637000
45.994554	6.640323	85.683000
46.082945	6.798488	85.729000
46.108888	6.843521	85.893000
46.133879	6.892804	85.939000
46.158197	6.942822	85.986000
46.182488	6.993753	86.031000
46.207778	7.043586	86.078000
46.232319	7.091789	86.124000
46.443153	7.143549	86.170000
46.468489	7.534552	86.559000
46.493533	7.570919	86.605000
46.517782	7.606511	86.651000
46.543864	7.641616	86.698000
46.569250	7.678887	86.743000
46.593534	7.714269	86.789000
46.679681	7.836749	86.835000
46.703807	7.865794	86.994000
46.728205	7.898786	87.040000
46.753657	7.936161	87.086000
46.778559	7.971316	87.132000
46.803273	8.008616	87.177000
46.828801	8.047626	87.223000
46.924568	8.081855	87.269000
46.949646	8.203935	87.446000
46.974698	8.236797	87.493000
47.000065	8.269039	87.538000
47.024364	8.303903	87.584000
47.048755	8.338352	87.631000
47.074103	8.383759	87.677000
47.098613	8.425186	87.723000
47.123811	8.471478	87.769000
47.149297	8.521486	87.815000
47.174230	8.568493	87.861000
47.198963	8.621863	87.907000
47.282820	8.796290	87.953000
47.307707	8.848038	88.109000
47.333055	8.904209	88.155000
47.358249	8.966441	88.201000
47.383470	9.028869	88.247000
47.408283	9.097997	88.294000
47.434146	9.161354	88.340000
47.520573	9.234099	88.386000
47.545883	9.503914	88.547000
47.569893	9.579929	88.592000
47.594066	9.657112	88.638000
47.619943	9.737582	88.685000
47.644769	9.815982	88.731000
47.670220	9.891950	88.777000
47.694976	9.973746	88.824000
47.720966	10.053417	88.870000
47.745645	10.137110	88.916000
47.769537	10.222261	88.962000
47.794823	10.310519	89.008000
47.878768	10.619036	89.054000
47.904769	10.703312	89.210000
47.929498	10.795470	89.256000
47.954304	10.885308	89.303000
47.979245	10.970538	89.348000
48.004397	11.056912	89.393000
48.027893	11.134860	89.439000
48.115465	11.206222	89.485000
48.140210	11.468546	89.647000
48.164785	11.551869	89.692000
48.191089	11.637000	89.738000
48.215961	11.730666	89.785000
48.240659	11.821852	89.831000
48.265945	11.912126	89.877000
48.291397	11.999616	89.923000
48.315377	12.086534	89.969000
48.339607	12.173826	90.014000
48.365227	12.258168	90.061000
48.390633	12.342528	90.107000
48.589092	12.959248	90.154000
48.614751	13.028745	90.521000
48.711440	13.096699	90.567000
48.736177	13.348223	90.747000
48.761548	13.424867	90.793000
48.787037	13.507175	90.838000
48.811367	13.589616	90.884000
48.836350	13.676486	90.930000
48.861190	13.763570	90.977000
48.885124	13.846852	91.022000
48.910695	13.929376	91.069000
48.936058	14.003504	91.115000
48.961360	14.071824	91.161000
48.985770	14.141713	91.207000
49.070753	14.385903	91.253000
49.094652	14.457580	91.409000
49.119846	14.536020	91.455000
49.145017	14.619225	91.501000
49.169781	14.708002	91.547000
49.195090	14.799363	91.593000
49.220638	14.889667	91.640000
49.422294	14.986901	91.686000
49.446900	15.749152	92.059000
49.472701	15.842388	92.105000
49.498122	15.935946	92.152000
49.522448	16.020823	92.198000
49.548015	16.100299	92.244000
49.571603	16.175175	92.289000
49.657342	16.394611	92.335000
49.682248	16.461591	92.494000
49.707285	16.539632	92.539000
49.732306	16.624489	92.586000
49.757408	16.713542	92.631000
49.782756	16.806929	92.678000
49.807443	16.897898	92.724000
49.903666	16.992469	92.770000
49.927985	17.363347	92.947000
49.952602	17.460416	92.993000
49.977670	17.558211	93.039000
50.002787	17.656486	93.084000
50.027382	17.754427	93.131000
50.052591	17.853188	93.177000
50.078646	17.952089	93.223000
50.103417	18.050773	93.269000
50.128054	18.142118	93.316000
50.153467	18.240672	93.362000
50.176909	18.334435	93.407000
50.262184	18.654777	93.454000
50.287382	18.746395	93.610000
50.312457	18.839920	93.656000
50.337574	18.938991	93.703000
50.362907	19.038539	93.748000
50.386664	19.137661	93.794000
50.411381	19.241910	93.840000
50.498439	19.348755	93.887000
50.522457	19.732156	94.046000
50.548550	19.852302	94.093000
50.573333	19.970915	94.139000
50.598608	20.096503	94.185000
50.623349	20.219918	94.231000
50.649065	20.345875	94.276000
50.673587	20.474522	94.323000
50.698662	20.605240	94.370000
50.723399	20.733595	94.416000
50.747629	20.867855	94.462000
50.772834	20.999144	94.507000
50.857829	21.498305	94.553000
50.882320	21.643584	94.709000
50.907402	21.790224	94.755000
50.932393	21.934576	94.801000
50.956254	22.072688	94.846000
50.981567	22.209387	94.892000
51.006961	22.340072	94.938000
51.093530	22.463057	94.984000
51.119301	22.895918	95.147000
51.144291	23.012300	95.191000
51.168855	23.126122	95.237000
51.194026	23.237689	95.283000
51.219063	23.341375	95.329000
51.242743	23.447544	95.375000
51.268260	23.561751	95.421000
51.293546	23.683725	95.468000
51.318344	23.814225	95.514000
51.343592	23.947417	95.561000
51.369616	24.083234	95.606000
51.568260	25.154819	95.653000
51.593420	25.288682	96.021000
51.690097	25.430605	96.067000
51.715783	26.013973	96.246000
51.740297	26.174019	96.293000
51.765375	26.336415	96.338000
51.789129	26.504948	96.384000
51.813516	26.674435	96.431000
51.839325	26.843690	96.476000
51.864292	27.009155	96.522000
51.888929	27.172344	96.568000
51.914073	27.331904	96.614000
51.939874	27.488979	96.659000
51.964073	27.644514	96.706000
52.047485	28.192894	96.752000
52.072806	28.355743	96.908000
52.097746	28.517505	96.954000
52.123432	28.673447	97.000000
52.148012	28.828298	97.045000
52.172019	28.974454	97.091000
52.196690	29.118189	97.137000
52.401228	29.257315	97.182000
52.426153	30.425887	97.559000
52.451182	30.580225	97.605000
52.476994	30.740024	97.652000
52.500909	30.897787	97.698000
52.525223	31.069974	97.744000
52.551389	31.239324	97.790000
52.636176	31.837558	97.835000
52.661743	32.003674	97.993000
52.686238	32.177323	98.038000
52.710951	32.343797	98.084000
52.735389	32.504226	98.130000
52.759584	32.660829	98.176000
52.784667	32.815958	98.222000
52.881724	32.971426	98.267000
52.906384	33.562562	98.447000
52.931567	33.714812	98.492000
52.956230	33.866194	98.539000
52.982128	34.023495	98.585000
53.007429	34.190427	98.630000
53.031217	34.357007	98.676000
53.056219	34.524227	98.722000
53.081336	34.689875	98.769000
53.105589	34.840711	98.815000
53.130687	34.981815	98.861000
53.155904	35.121177	98.907000
53.240587	35.612672	98.952000
53.265428	35.770589	99.108000
53.289692	35.948719	99.154000
53.314080	36.143406	99.199000
53.339800	36.348451	99.247000
53.365075	36.555706	99.293000
53.389858	36.768378	99.338000
53.477495	36.979275	99.384000
53.502271	37.708966	99.547000
53.527676	37.922025	99.593000
53.553193	38.134526	99.638000
53.577791	38.349057	99.684000
53.601748	38.580659	99.729000
53.627015	38.819582	99.777000
53.652017	39.064088	99.823000
53.676428	39.305199	99.869000
53.702513	39.547863	99.915000
53.727242	39.790787	99.961000
53.751998	40.028190	100.007000
53.836520	40.770233	100.052000
